%%%%%%%%%%%%%%%
% Real Postition of EE for given coordinates (without noise)
% L0=400+5 (mm)
% L1=300-3 (mm)
% L1=300-4 (mm)
% L2=550+10 (mm)
% L3=550+8 (mm)
% Dq1=-2 (deg)
% Dq2=1 (deg)
%
% Xm=Xr+ 5*randn---> var=5;
%%
Xm=[ -270.2315
     -223.7904
     -189.3229
     -133.5318
      -88.5416
     -379.0936
     -322.9779
     -271.3450
     -231.6375
     -184.2602
     -132.5478
      -92.0006
      -27.3561
        8.4562
     -422.7640
     -387.0053
     -336.2439
     -276.5315
     -226.3368
     -182.7790
     -134.8372
      -80.2424
      -33.4613
       16.0995
       72.6056
     -492.5549
     -437.3548
     -383.0503
     -332.2424
     -284.8153
     -227.6769
     -177.6204
     -131.9604
      -70.6402
      -25.1204
       19.8276
       71.7654
      118.6456
     -489.0867
     -435.2811
     -392.3097
     -339.7643
     -281.1203
     -230.6641
     -178.4304
     -121.3135
      -69.7089
      -36.3863
       33.2101
       81.4444
      121.7708
     -498.9062
     -448.5631
     -396.1889
     -341.3482
     -288.1314
     -234.8272
     -185.0805
     -113.8954
      -66.6057
      -13.7095
       44.7360
       95.7066
      133.6787
     -499.6885
     -451.2351
     -401.3294
     -334.6670
     -284.6288
     -235.0777
     -174.7380
     -122.8659
      -67.3008
      -14.4959
       46.8504
       90.3759
      138.4718
     -547.6801
     -499.2692
     -449.2023
     -396.9867
     -344.6516
     -288.6138
     -227.9330
     -163.7097
     -124.0973
      -65.3936
       -5.2294
       53.5748
       98.0215
      150.5028
      195.1056
     -553.6137
     -510.7166
     -454.4848
     -396.8733
     -348.8484
     -282.1872
     -234.7314
     -176.0061
     -111.8960
      -50.3073
        1.7110
       48.4786
      108.6716
      156.0429
      213.0302
     -564.4494
     -508.1998
     -458.3654
     -408.7968
     -354.1335
     -288.4454
     -116.4051
     -172.0231
     -103.7081
      -56.3242
        8.6831
       66.2754
      116.8459
      167.9560
      218.4268
     -551.5894
     -509.2362
     -462.9492
     -400.3153
     -351.5949
     -287.1944
     -226.5174
     -170.6957
     -100.1770
      -46.4474
       13.8648
       62.2961
      124.4048
      160.9357
      228.7242
     -573.8361
     -526.1189
     -474.0415
     -410.5840
     -353.1386
     -302.8364
     -239.1175
     -165.6008
     -102.8317
      -38.2927
       13.3342
       85.0097
      126.4606
      179.0506
      229.6319
     -510.1233
     -465.7272
     -231.3773
     -163.7428
      -99.7250
      130.7221
      172.4753];
  %%
Ym=[    883.1848
  876.3390
  882.5063
  884.1192
  885.1659
  824.9011
  833.0490
  846.0026
  840.4391
  853.3869
  849.5174
  839.4871
  842.0417
  851.1765
  778.0347
  794.1057
  788.5732
  798.0564
  794.2939
  802.7581
  802.1035
  808.0166
  795.3695
  801.8715
  808.8449
  728.7795
  739.1109
  748.1755
  741.4341
  755.8781
  759.0467
  752.4152
  762.1041
  752.2588
  755.5691
  764.3619
  754.4426
  755.0462
  693.4472
  688.4685
  699.5986
  700.4760
  718.0709
  716.1900
  714.3031
  712.5705
  716.9316
  719.6187
  714.4684
  714.1112
  717.7932
  642.6704
  643.1351
  651.3855
  663.8489
  661.6611
  664.2000
  675.8034
  667.6512
  673.5665
  664.2700
  668.2080
  666.5324
  678.1023
  601.8512
  607.7902
  599.0379
  619.7082
  622.9939
  625.0993
  625.1583
  621.6101
  627.6351
  623.2723
  628.9662
  630.7930
  623.4455
  544.8550
  549.2723
  548.6276
  555.1896
  567.6136
  570.6471
  578.6405
  576.0371
  584.3612
  587.2785
  583.1747
  583.4025
  575.9976
  573.0950
  574.2093
  499.7737
  505.4253
  505.7858
  511.0157
  525.8174
  525.7889
  539.0966
  540.1176
  530.4369
  528.3776
  537.7266
  534.6253
  525.5784
  530.2028
  518.4686
  445.1958
  448.6240
  446.8483
  462.7108
  469.4124
  474.3156
  183.1967
  491.7075
  491.3262
  493.3010
  488.3158
  483.2001
  489.5469
  481.6334
  472.1424
  396.1667
  387.7330
  408.0102
  418.4069
  424.1051
  436.4661
  438.5909
  441.3369
  434.8464
  435.2957
  441.0649
  427.5953
  421.1949
  421.9713
  417.0736
  333.8231
  337.5795
  348.4261
  364.1691
  375.1310
  387.6390
  394.8146
  395.5633
  406.9872
  395.5044
  378.7697
  382.2169
  371.0370
  370.1981
  377.5891
  277.0944
  299.5762
  344.0425
  352.5503
  349.4468
  312.9512
  319.0075];